  PA[deg]   MIRRLAT[deg]  DENS[m-3]                      LZ = 1.75
 90.000  0.000   2.76369E+09
 88.227  0.836   3.36798E+09
 86.488  1.656   3.37251E+09
 84.781  2.463   3.37995E+09
 83.103  3.258   3.39023E+09
 81.453  4.042   3.40325E+09
 79.829  4.816   3.41899E+09
 78.229  5.582   3.43740E+09
 76.653  6.339   3.45849E+09
 75.098  7.091   3.48231E+09
 73.563  7.838   3.50905E+09
 72.047  8.579   3.53868E+09
 70.548  9.318   3.57125E+09
 69.066 10.053   3.60684E+09
 67.599 10.787   3.64555E+09
 66.146 11.519   3.68752E+09
 64.707 12.251   3.73285E+09
 63.279 12.983   3.78179E+09
 61.863 13.716   3.83567E+09
 60.456 14.452   3.89498E+09
 59.058 15.190   3.95952E+09
 57.668 15.932   4.02950E+09
 56.285 16.679   4.10523E+09
 54.907 17.431   4.18705E+09
 53.534 18.189   4.27248E+09
 52.165 18.955   4.36269E+09
 50.798 19.729   4.45879E+09
 49.431 20.513   4.56164E+09
 48.065 21.308   4.67189E+09
 46.697 22.115   4.79398E+09
 45.325 22.936   4.93414E+09
 43.949 23.772   5.09092E+09
 42.566 24.626   5.26567E+09
 41.175 25.500   5.49471E+09
 39.773 26.395   5.77204E+09
 38.358 27.316   6.05594E+09
 36.927 28.265   6.36336E+09
 35.476 29.247   6.72990E+09
 34.003 30.265   7.20472E+09
 32.503 31.325   7.71855E+09
 30.970 32.436   8.32400E+09
 29.399 33.604   9.10914E+09
 27.781 34.842   1.01387E+10
 26.107 36.164   1.14759E+10
 24.362 36.164   1.14759E+10
 22.531 36.164   1.14759E+10
 20.587 36.164   1.14759E+10
 18.650 36.164   1.14759E+10
 17.128 36.164   1.14759E+10
 16.000 36.164   1.14759E+10
 14.339 36.164   1.14759E+10
 12.248 36.164   1.14759E+10
 10.628 36.164   1.14759E+10
  9.341 36.164   1.14759E+10
  8.297 36.164   1.14759E+10
  7.436 36.164   1.14759E+10
  6.715 36.164   1.14759E+10
  6.104 36.164   1.14759E+10
  5.581 36.164   1.14759E+10
  5.129 36.164   1.14759E+10
  4.735 36.164   1.14759E+10
  4.389 36.164   1.14759E+10
  4.084 36.164   1.14759E+10
  3.812 36.164   1.14759E+10
  3.569 36.164   1.14759E+10
  3.352 36.164   1.14759E+10
  3.155 36.164   1.14759E+10
  2.500 36.164   1.14759E+10
  1.500 36.164   1.14759E+10
  1.000 36.164   1.14759E+10
  0.000 36.164   1.14759E+10
  PA[deg]   MIRRLAT[deg]  DENS[m-3]                      LZ = 2.00
 90.000  0.000   1.41240E+09
 88.227  0.836   1.96736E+09
 86.488  1.656   1.96952E+09
 84.781  2.463   1.97307E+09
 83.103  3.258   1.97796E+09
 81.453  4.042   1.98416E+09
 79.829  4.816   1.99164E+09
 78.229  5.582   2.00038E+09
 76.653  6.339   2.01037E+09
 75.098  7.091   2.02162E+09
 73.563  7.838   2.03413E+09
 72.047  8.579   2.04792E+09
 70.548  9.318   2.06303E+09
 69.066 10.053   2.07946E+09
 67.599 10.787   2.09730E+09
 66.146 11.519   2.11658E+09
 64.707 12.251   2.13734E+09
 63.279 12.983   2.15967E+09
 61.863 13.716   2.18362E+09
 60.456 14.452   2.20929E+09
 59.058 15.190   2.23677E+09
 57.668 15.932   2.26767E+09
 56.285 16.679   2.30422E+09
 54.907 17.431   2.34533E+09
 53.534 18.189   2.39089E+09
 52.165 18.955   2.44100E+09
 50.798 19.729   2.49595E+09
 49.431 20.513   2.55609E+09
 48.065 21.308   2.62182E+09
 46.697 22.115   2.69380E+09
 45.325 22.936   2.77308E+09
 43.949 23.772   2.86018E+09
 42.566 24.626   2.95652E+09
 41.175 25.500   3.06585E+09
 39.773 26.395   3.18879E+09
 38.358 27.316   3.32485E+09
 36.927 28.265   3.47268E+09
 35.476 29.247   3.63625E+09
 34.003 30.265   3.82517E+09
 32.503 31.325   4.05275E+09
 30.970 32.436   4.34849E+09
 29.399 33.604   4.73445E+09
 27.781 34.842   5.16342E+09
 26.107 36.164   5.76693E+09
 24.362 37.590   6.50125E+09
 22.531 39.147   7.55971E+09
 20.587 40.875   9.17132E+09
 18.650 40.875   9.17132E+09
 17.128 40.875   9.17132E+09
 16.000 40.875   9.17132E+09
 14.339 40.875   9.17132E+09
 12.248 40.875   9.17132E+09
 10.628 40.875   9.17132E+09
  9.341 40.875   9.17132E+09
  8.297 40.875   9.17132E+09
  7.436 40.875   9.17132E+09
  6.715 40.875   9.17132E+09
  6.104 40.875   9.17132E+09
  5.581 40.875   9.17132E+09
  5.129 40.875   9.17132E+09
  4.735 40.875   9.17132E+09
  4.389 40.875   9.17132E+09
  4.084 40.875   9.17132E+09
  3.812 40.875   9.17132E+09
  3.569 40.875   9.17132E+09
  3.352 40.875   9.17132E+09
  3.155 40.875   9.17132E+09
  2.500 40.875   9.17132E+09
  1.500 40.875   9.17132E+09
  1.000 40.875   9.17132E+09
  0.000 40.875   9.17132E+09
  PA[deg]   MIRRLAT[deg]  DENS[m-3]                      LZ = 2.25
 90.000  0.000   8.03595E+08
 88.227  0.836   1.25947E+09
 86.488  1.656   1.26084E+09
 84.781  2.463   1.26308E+09
 83.103  3.258   1.26619E+09
 81.453  4.042   1.27011E+09
 79.829  4.816   1.27485E+09
 78.229  5.582   1.28039E+09
 76.653  6.339   1.28672E+09
 75.098  7.091   1.29384E+09
 73.563  7.838   1.30177E+09
 72.047  8.579   1.31050E+09
 70.548  9.318   1.32007E+09
 69.066 10.053   1.33048E+09
 67.599 10.787   1.34178E+09
 66.146 11.519   1.35400E+09
 64.707 12.251   1.36716E+09
 63.279 12.983   1.38131E+09
 61.863 13.716   1.39649E+09
 60.456 14.452   1.41275E+09
 59.058 15.190   1.43072E+09
 57.668 15.932   1.45143E+09
 56.285 16.679   1.47443E+09
 54.907 17.431   1.49969E+09
 53.534 18.189   1.52726E+09
 52.165 18.955   1.55693E+09
 50.798 19.729   1.58806E+09
 49.431 20.513   1.62123E+09
 48.065 21.308   1.65673E+09
 46.697 22.115   1.69486E+09
 45.325 22.936   1.73602E+09
 43.949 23.772   1.78046E+09
 42.566 24.626   1.82862E+09
 41.175 25.500   1.88550E+09
 39.773 26.395   1.95266E+09
 38.358 27.316   2.02988E+09
 36.927 28.265   2.11807E+09
 35.476 29.247   2.21898E+09
 34.003 30.265   2.33516E+09
 32.503 31.325   2.47061E+09
 30.970 32.436   2.63299E+09
 29.399 33.604   2.82160E+09
 27.781 34.842   3.03941E+09
 26.107 36.164   3.31493E+09
 24.362 37.590   3.71309E+09
 22.531 39.147   4.24131E+09
 20.587 40.876   5.02439E+09
 18.650 42.688   6.09231E+09
 17.128 44.186   7.38829E+09
 16.000 44.186   7.38829E+09
 14.339 44.186   7.38829E+09
 12.248 44.186   7.38829E+09
 10.628 44.186   7.38829E+09
  9.341 44.186   7.38829E+09
  8.297 44.186   7.38829E+09
  7.436 44.186   7.38829E+09
  6.715 44.186   7.38829E+09
  6.104 44.186   7.38829E+09
  5.581 44.186   7.38829E+09
  5.129 44.186   7.38829E+09
  4.735 44.186   7.38829E+09
  4.389 44.186   7.38829E+09
  4.084 44.186   7.38829E+09
  3.812 44.186   7.38829E+09
  3.569 44.186   7.38829E+09
  3.352 44.186   7.38829E+09
  3.155 44.186   7.38829E+09
  2.500 44.186   7.38829E+09
  1.500 44.186   7.38829E+09
  1.000 44.186   7.38829E+09
  0.000 44.186   7.38829E+09
  PA[deg]   MIRRLAT[deg]  DENS[m-3]                      LZ = 2.50
 90.000  0.000   5.02688E+08
 88.227  0.836   8.75422E+08
 86.488  1.656   8.76094E+08
 84.781  2.463   8.77197E+08
 83.103  3.258   8.78716E+08
 81.453  4.042   8.80637E+08
 79.829  4.816   8.82952E+08
 78.229  5.582   8.85653E+08
 76.653  6.339   8.88734E+08
 75.098  7.091   8.92193E+08
 73.563  7.838   8.96032E+08
 72.047  8.579   9.00359E+08
 70.548  9.318   9.06057E+08
 69.066 10.053   9.12789E+08
 67.599 10.787   9.20411E+08
 66.146 11.519   9.28876E+08
 64.707 12.251   9.38167E+08
 63.279 12.983   9.48302E+08
 61.863 13.716   9.59260E+08
 60.456 14.452   9.70942E+08
 59.058 15.190   9.83442E+08
 57.668 15.932   9.96831E+08
 56.285 16.679   1.01116E+09
 54.907 17.431   1.02652E+09
 53.534 18.189   1.04305E+09
 52.165 18.955   1.06101E+09
 50.798 19.729   1.08042E+09
 49.431 20.513   1.10137E+09
 48.065 21.308   1.12398E+09
 46.697 22.115   1.14844E+09
 45.325 22.936   1.17490E+09
 43.949 23.772   1.20398E+09
 42.566 24.626   1.23806E+09
 41.175 25.500   1.27675E+09
 39.773 26.395   1.31980E+09
 38.358 27.316   1.36640E+09
 36.927 28.265   1.41764E+09
 35.476 29.247   1.47452E+09
 34.003 30.265   1.53795E+09
 32.503 31.325   1.61470E+09
 30.970 32.436   1.71058E+09
 29.399 33.604   1.82674E+09
 27.781 34.842   1.96825E+09
 26.107 36.164   2.14447E+09
 24.362 37.590   2.36973E+09
 22.531 39.147   2.64834E+09
 20.587 40.875   3.05361E+09
 18.650 42.688   3.65852E+09
 17.128 44.186   4.34145E+09
 16.000 45.343   4.98735E+09
 14.339 47.134   6.37646E+09
 12.248 47.134   6.37646E+09
 10.628 47.134   6.37646E+09
  9.341 47.134   6.37646E+09
  8.297 47.134   6.37646E+09
  7.436 47.134   6.37646E+09
  6.715 47.134   6.37646E+09
  6.104 47.134   6.37646E+09
  5.581 47.134   6.37646E+09
  5.129 47.134   6.37646E+09
  4.735 47.134   6.37646E+09
  4.389 47.134   6.37646E+09
  4.084 47.134   6.37646E+09
  3.812 47.134   6.37646E+09
  3.569 47.134   6.37646E+09
  3.352 47.134   6.37646E+09
  3.155 47.134   6.37646E+09
  2.500 47.134   6.37646E+09
  1.500 47.134   6.37646E+09
  1.000 47.134   6.37646E+09
  0.000 47.134   6.37646E+09
  PA[deg]   MIRRLAT[deg]  DENS[m-3]                      LZ = 2.75
 90.000  0.000   3.41889E+08
 88.227  0.836   6.55016E+08
 86.488  1.656   6.55546E+08
 84.781  2.463   6.56416E+08
 83.103  3.258   6.57614E+08
 81.453  4.042   6.59130E+08
 79.829  4.816   6.60957E+08
 78.229  5.582   6.63102E+08
 76.653  6.339   6.65887E+08
 75.098  7.091   6.69216E+08
 73.563  7.838   6.73020E+08
 72.047  8.579   6.77276E+08
 70.548  9.318   6.81981E+08
 69.066 10.053   6.87132E+08
 67.599 10.787   6.92739E+08
 66.146 11.519   6.98813E+08
 64.707 12.251   7.05363E+08
 63.279 12.983   7.12416E+08
 61.863 13.716   7.19985E+08
 60.456 14.452   7.27718E+08
 59.058 15.190   7.35567E+08
 57.668 15.932   7.43715E+08
 56.285 16.679   7.52236E+08
 54.907 17.431   7.61186E+08
 53.534 18.189   7.70610E+08
 52.165 18.955   7.80555E+08
 50.798 19.729   7.91449E+08
 49.431 20.513   8.04696E+08
 48.065 21.308   8.19786E+08
 46.697 22.115   8.36635E+08
 45.325 22.936   8.55064E+08
 43.949 23.772   8.75210E+08
 42.566 24.626   8.97288E+08
 41.175 25.500   9.21719E+08
 39.773 26.395   9.48899E+08
 38.358 27.316   9.79057E+08
 36.927 28.265   1.01261E+09
 35.476 29.247   1.05036E+09
 34.003 30.265   1.09621E+09
 32.503 31.325   1.15017E+09
 30.970 32.436   1.21102E+09
 29.399 33.604   1.28086E+09
 27.781 34.842   1.36240E+09
 26.107 36.164   1.47105E+09
 24.362 37.590   1.61393E+09
 22.531 39.147   1.80230E+09
 20.587 40.875   2.06440E+09
 18.650 42.688   2.39619E+09
 17.128 44.186   2.78624E+09
 16.000 45.343   3.17515E+09
 14.339 47.134   3.94422E+09
 12.248 49.562   5.60119E+09
 10.628 49.562   5.60119E+09
  9.341 49.562   5.60119E+09
  8.297 49.562   5.60119E+09
  7.436 49.562   5.60119E+09
  6.715 49.562   5.60119E+09
  6.104 49.562   5.60119E+09
  5.581 49.562   5.60119E+09
  5.129 49.562   5.60119E+09
  4.735 49.562   5.60119E+09
  4.389 49.562   5.60119E+09
  4.084 49.562   5.60119E+09
  3.812 49.562   5.60119E+09
  3.569 49.562   5.60119E+09
  3.352 49.562   5.60119E+09
  3.155 49.562   5.60119E+09
  2.500 49.562   5.60119E+09
  1.500 49.562   5.60119E+09
  1.000 49.562   5.60119E+09
  0.000 49.562   5.60119E+09
  PA[deg]   MIRRLAT[deg]  DENS[m-3]                      LZ = 3.00
 90.000  0.000   2.38861E+08
 88.227  0.836   4.98647E+08
 86.488  1.656   4.99161E+08
 84.781  2.463   5.00007E+08
 83.103  3.258   5.01173E+08
 81.453  4.042   5.02649E+08
 79.829  4.816   5.04430E+08
 78.229  5.582   5.06510E+08
 76.653  6.339   5.08887E+08
 75.098  7.091   5.11562E+08
 73.563  7.838   5.14543E+08
 72.047  8.579   5.17833E+08
 70.548  9.318   5.21436E+08
 69.066 10.053   5.25357E+08
 67.599 10.787   5.29605E+08
 66.146 11.519   5.34191E+08
 64.707 12.251   5.39125E+08
 63.279 12.983   5.44426E+08
 61.863 13.716   5.50028E+08
 60.456 14.452   5.55749E+08
 59.058 15.190   5.61713E+08
 57.668 15.932   5.67974E+08
 56.285 16.679   5.74572E+08
 54.907 17.431   5.81546E+08
 53.534 18.189   5.89264E+08
 52.165 18.955   5.98052E+08
 50.798 19.729   6.07737E+08
 49.431 20.513   6.18324E+08
 48.065 21.308   6.29835E+08
 46.697 22.115   6.42004E+08
 45.325 22.936   6.54458E+08
 43.949 23.772   6.67522E+08
 42.566 24.626   6.81371E+08
 41.175 25.500   6.96156E+08
 39.773 26.395   7.14167E+08
 38.358 27.316   7.35395E+08
 36.927 28.265   7.59490E+08
 35.476 29.247   7.86637E+08
 34.003 30.265   8.17506E+08
 32.503 31.325   8.53048E+08
 30.970 32.436   8.93988E+08
 29.399 33.604   9.42284E+08
 27.781 34.842   1.00400E+09
 26.107 36.164   1.07782E+09
 24.362 37.590   1.16680E+09
 22.531 39.147   1.28479E+09
 20.587 40.875   1.45727E+09
 18.650 42.688   1.69042E+09
 17.128 44.186   1.93542E+09
 16.000 45.343   2.15936E+09
 14.339 47.134   2.63542E+09
 12.248 49.562   3.60808E+09
 10.628 51.611   5.02937E+09
  9.341 51.611   5.02937E+09
  8.297 51.611   5.02937E+09
  7.436 51.611   5.02937E+09
  6.715 51.611   5.02937E+09
  6.104 51.611   5.02937E+09
  5.581 51.611   5.02937E+09
  5.129 51.611   5.02937E+09
  4.735 51.611   5.02937E+09
  4.389 51.611   5.02937E+09
  4.084 51.611   5.02937E+09
  3.812 51.611   5.02937E+09
  3.569 51.611   5.02937E+09
  3.352 51.611   5.02937E+09
  3.155 51.611   5.02937E+09
  2.500 51.611   5.02937E+09
  1.500 51.611   5.02937E+09
  1.000 51.611   5.02937E+09
  0.000 51.611   5.02937E+09
  PA[deg]   MIRRLAT[deg]  DENS[m-3]                      LZ = 3.25
 90.000  0.000   1.71338E+08
 88.227  0.836   3.87483E+08
 86.488  1.656   3.87853E+08
 84.781  2.463   3.88462E+08
 83.103  3.258   3.89301E+08
 81.453  4.042   3.90363E+08
 79.829  4.816   3.91643E+08
 78.229  5.582   3.93138E+08
 76.653  6.339   3.94846E+08
 75.098  7.091   3.96766E+08
 73.563  7.838   3.98900E+08
 72.047  8.579   4.01249E+08
 70.548  9.318   4.03817E+08
 69.066 10.053   4.06609E+08
 67.599 10.787   4.09636E+08
 66.146 11.519   4.12906E+08
 64.707 12.251   4.16423E+08
 63.279 12.983   4.20201E+08
 61.863 13.716   4.24244E+08
 60.456 14.452   4.28572E+08
 59.058 15.190   4.33246E+08
 57.668 15.932   4.38472E+08
 56.285 16.679   4.44182E+08
 54.907 17.431   4.50377E+08
 53.534 18.189   4.57073E+08
 52.165 18.955   4.64302E+08
 50.798 19.729   4.72097E+08
 49.431 20.513   4.80501E+08
 48.065 21.308   4.89388E+08
 46.697 22.115   4.98573E+08
 45.325 22.936   5.08261E+08
 43.949 23.772   5.18549E+08
 42.566 24.626   5.30375E+08
 41.175 25.500   5.43735E+08
 39.773 26.395   5.58616E+08
 38.358 27.316   5.74663E+08
 36.927 28.265   5.91406E+08
 35.476 29.247   6.09392E+08
 34.003 30.265   6.29617E+08
 32.503 31.325   6.55160E+08
 30.970 32.436   6.85421E+08
 29.399 33.604   7.20826E+08
 27.781 34.842   7.63224E+08
 26.107 36.164   8.14221E+08
 24.362 37.590   8.80309E+08
 22.531 39.147   9.66723E+08
 20.587 40.876   1.07725E+09
 18.650 42.688   1.23346E+09
 17.128 44.186   1.40384E+09
 16.000 45.343   1.56793E+09
 14.339 47.134   1.86122E+09
 12.248 49.562   2.48538E+09
 10.628 51.611   3.34979E+09
  9.341 53.370   4.56512E+09
  8.297 53.370   4.56512E+09
  7.436 53.370   4.56512E+09
  6.715 53.370   4.56512E+09
  6.104 53.370   4.56512E+09
  5.581 53.370   4.56512E+09
  5.129 53.370   4.56512E+09
  4.735 53.370   4.56512E+09
  4.389 53.370   4.56512E+09
  4.084 53.370   4.56512E+09
  3.812 53.370   4.56512E+09
  3.569 53.370   4.56512E+09
  3.352 53.370   4.56512E+09
  3.155 53.370   4.56512E+09
  2.500 53.370   4.56512E+09
  1.500 53.370   4.56512E+09
  1.000 53.370   4.56512E+09
  0.000 53.370   4.56512E+09
  PA[deg]   MIRRLAT[deg]  DENS[m-3]                      LZ = 3.50
 90.000  0.000   1.26044E+08
 88.227  0.836   3.06962E+08
 86.488  1.656   3.07209E+08
 84.781  2.463   3.07615E+08
 83.103  3.258   3.08174E+08
 81.453  4.042   3.08881E+08
 79.829  4.816   3.09732E+08
 78.229  5.582   3.10727E+08
 76.653  6.339   3.11885E+08
 75.098  7.091   3.13322E+08
 73.563  7.838   3.14984E+08
 72.047  8.579   3.16851E+08
 70.548  9.318   3.18919E+08
 69.066 10.053   3.21185E+08
 67.599 10.787   3.23652E+08
 66.146 11.519   3.26324E+08
 64.707 12.251   3.29206E+08
 63.279 12.983   3.32307E+08
 61.863 13.716   3.35634E+08
 60.456 14.452   3.39201E+08
 59.058 15.190   3.43018E+08
 57.668 15.932   3.47125E+08
 56.285 16.679   3.51529E+08
 54.907 17.431   3.56246E+08
 53.534 18.189   3.61293E+08
 52.165 18.955   3.66696E+08
 50.798 19.729   3.72490E+08
 49.431 20.513   3.78706E+08
 48.065 21.308   3.85367E+08
 46.697 22.115   3.92765E+08
 45.325 22.936   4.00988E+08
 43.949 23.772   4.10021E+08
 42.566 24.626   4.19939E+08
 41.175 25.500   4.30803E+08
 39.773 26.395   4.42445E+08
 38.358 27.316   4.54713E+08
 36.927 28.265   4.67982E+08
 35.476 29.247   4.83604E+08
 34.003 30.265   5.01592E+08
 32.503 31.325   5.21466E+08
 30.970 32.436   5.42745E+08
 29.399 33.604   5.66692E+08
 27.781 34.842   5.98053E+08
 26.107 36.164   6.36692E+08
 24.362 37.590   6.84750E+08
 22.531 39.147   7.45677E+08
 20.587 40.875   8.31685E+08
 18.650 42.688   9.40412E+08
 17.128 44.186   1.05457E+09
 16.000 45.343   1.16934E+09
 14.339 47.134   1.38584E+09
 12.248 49.562   1.78973E+09
 10.628 51.611   2.36409E+09
  9.341 53.371   3.12979E+09
  8.297 54.905   4.18038E+09
  7.436 54.905   4.18038E+09
  6.715 54.905   4.18038E+09
  6.104 54.905   4.18038E+09
  5.581 54.905   4.18038E+09
  5.129 54.905   4.18038E+09
  4.735 54.905   4.18038E+09
  4.389 54.905   4.18038E+09
  4.084 54.905   4.18038E+09
  3.812 54.905   4.18038E+09
  3.569 54.905   4.18038E+09
  3.352 54.905   4.18038E+09
  3.155 54.905   4.18038E+09
  2.500 54.905   4.18038E+09
  1.500 54.905   4.18038E+09
  1.000 54.905   4.18038E+09
  0.000 54.905   4.18038E+09
  PA[deg]   MIRRLAT[deg]  DENS[m-3]                      LZ = 3.75
 90.000  0.000   9.47836E+07
 88.227  0.836   2.47329E+08
 86.488  1.656   2.47559E+08
 84.781  2.463   2.47936E+08
 83.103  3.258   2.48456E+08
 81.453  4.042   2.49114E+08
 79.829  4.816   2.49908E+08
 78.229  5.581   2.50834E+08
 76.653  6.339   2.51892E+08
 75.098  7.091   2.53082E+08
 73.563  7.838   2.54404E+08
 72.047  8.579   2.55858E+08
 70.548  9.318   2.57464E+08
 69.066 10.053   2.59309E+08
 67.599 10.787   2.61359E+08
 66.146 11.519   2.63605E+08
 64.707 12.251   2.66045E+08
 63.279 12.983   2.68685E+08
 61.863 13.716   2.71393E+08
 60.456 14.452   2.74157E+08
 59.058 15.190   2.77038E+08
 57.668 15.932   2.80060E+08
 56.285 16.679   2.83362E+08
 54.907 17.431   2.87058E+08
 53.534 18.189   2.91087E+08
 52.165 18.955   2.95446E+08
 50.798 19.729   3.00154E+08
 49.431 20.513   3.05232E+08
 48.065 21.308   3.10704E+08
 46.697 22.115   3.16639E+08
 45.325 22.936   3.23066E+08
 43.949 23.772   3.30019E+08
 42.566 24.626   3.37576E+08
 41.175 25.500   3.45786E+08
 39.773 26.395   3.54877E+08
 38.358 27.316   3.65235E+08
 36.927 28.265   3.76869E+08
 35.476 29.247   3.89923E+08
 34.003 30.265   4.04214E+08
 32.503 31.325   4.19606E+08
 30.970 32.436   4.37551E+08
 29.399 33.604   4.59149E+08
 27.781 34.842   4.83351E+08
 26.107 36.164   5.10274E+08
 24.362 37.590   5.46288E+08
 22.531 39.147   5.93418E+08
 20.587 40.875   6.55997E+08
 18.650 42.688   7.39054E+08
 17.128 44.186   8.25591E+08
 16.000 45.343   9.02860E+08
 14.339 47.134   1.05672E+09
 12.248 49.562   1.36073E+09
 10.628 51.610   1.73292E+09
  9.341 53.370   2.25775E+09
  8.297 54.905   2.93895E+09
  7.436 56.258   3.85605E+09
  6.715 56.258   3.85605E+09
  6.104 56.258   3.85605E+09
  5.581 56.258   3.85605E+09
  5.129 56.258   3.85605E+09
  4.735 56.258   3.85605E+09
  4.389 56.258   3.85605E+09
  4.084 56.258   3.85605E+09
  3.812 56.258   3.85605E+09
  3.569 56.258   3.85605E+09
  3.352 56.258   3.85605E+09
  3.155 56.258   3.85605E+09
  2.500 56.258   3.85605E+09
  1.500 56.258   3.85605E+09
  1.000 56.258   3.85605E+09
  0.000 56.258   3.85605E+09
  PA[deg]   MIRRLAT[deg]  DENS[m-3]                      LZ = 4.00
 90.000  0.000   7.13998E+07
 88.227  0.836   1.98736E+08
 86.488  1.656   1.98932E+08
 84.781  2.463   1.99253E+08
 83.103  3.258   1.99697E+08
 81.453  4.042   2.00275E+08
 79.829  4.816   2.01024E+08
 78.229  5.581   2.01919E+08
 76.653  6.339   2.02951E+08
 75.098  7.091   2.04120E+08
 73.563  7.838   2.05425E+08
 72.047  8.579   2.06867E+08
 70.548  9.318   2.08449E+08
 69.066 10.053   2.10155E+08
 67.599 10.787   2.11919E+08
 66.146 11.519   2.13778E+08
 64.707 12.251   2.15749E+08
 63.279 12.983   2.17846E+08
 61.863 13.716   2.20075E+08
 60.456 14.452   2.22449E+08
 59.058 15.190   2.24977E+08
 57.668 15.932   2.27669E+08
 56.285 16.679   2.30534E+08
 54.907 17.431   2.33633E+08
 53.534 18.189   2.37079E+08
 52.165 18.955   2.40835E+08
 50.798 19.729   2.44851E+08
 49.431 20.513   2.48942E+08
 48.065 21.308   2.53206E+08
 46.697 22.115   2.57846E+08
 45.325 22.936   2.63053E+08
 43.949 23.772   2.68764E+08
 42.566 24.626   2.75011E+08
 41.175 25.500   2.81833E+08
 39.773 26.395   2.89337E+08
 38.358 27.316   2.97594E+08
 36.927 28.265   3.06698E+08
 35.476 29.247   3.16783E+08
 34.003 30.265   3.28324E+08
 32.503 31.325   3.41738E+08
 30.970 32.436   3.57193E+08
 29.399 33.604   3.74419E+08
 27.781 34.842   3.93903E+08
 26.107 36.164   4.18327E+08
 24.362 37.590   4.46828E+08
 22.531 39.147   4.80874E+08
 20.587 40.875   5.29782E+08
 18.650 42.688   5.92878E+08
 17.128 44.186   6.58115E+08
 16.000 45.343   7.21204E+08
 14.339 47.134   8.29955E+08
 12.248 49.562   1.05197E+09
 10.628 51.611   1.33770E+09
  9.341 53.370   1.68730E+09
  8.297 54.905   2.16531E+09
  7.436 56.259   2.77104E+09
  6.715 57.465   3.57902E+09
  6.104 57.465   3.57902E+09
  5.581 57.465   3.57902E+09
  5.129 57.465   3.57902E+09
  4.735 57.465   3.57902E+09
  4.389 57.465   3.57902E+09
  4.084 57.465   3.57902E+09
  3.812 57.465   3.57902E+09
  3.569 57.465   3.57902E+09
  3.352 57.465   3.57902E+09
  3.155 57.465   3.57902E+09
  2.500 57.465   3.57902E+09
  1.500 57.465   3.57902E+09
  1.000 57.465   3.57902E+09
  0.000 57.465   3.57902E+09
  PA[deg]   MIRRLAT[deg]  DENS[m-3]                      LZ = 4.25
 90.000  0.000   5.57224E+07
 88.227  0.836   1.64796E+08
 86.488  1.656   1.64970E+08
 84.781  2.463   1.65256E+08
 83.103  3.258   1.65649E+08
 81.453  4.042   1.66147E+08
 79.829  4.816   1.66748E+08
 78.229  5.581   1.67446E+08
 76.653  6.339   1.68171E+08
 75.098  7.091   1.68947E+08
 73.563  7.838   1.69789E+08
 72.047  8.579   1.70701E+08
 70.548  9.318   1.71689E+08
 69.066 10.053   1.72754E+08
 67.599 10.787   1.73900E+08
 66.146 11.519   1.75196E+08
 64.707 12.251   1.76668E+08
 63.279 12.983   1.78289E+08
 61.863 13.716   1.80053E+08
 60.456 14.452   1.81963E+08
 59.058 15.190   1.84102E+08
 57.668 15.932   1.86485E+08
 56.285 16.679   1.89091E+08
 54.907 17.431   1.91891E+08
 53.534 18.189   1.94801E+08
 52.165 18.955   1.97875E+08
 50.798 19.729   2.01146E+08
 49.431 20.513   2.04637E+08
 48.065 21.308   2.08367E+08
 46.697 22.115   2.12375E+08
 45.325 22.936   2.16866E+08
 43.949 23.772   2.21822E+08
 42.566 24.626   2.26997E+08
 41.175 25.500   2.32408E+08
 39.773 26.395   2.38475E+08
 38.358 27.316   2.45306E+08
 36.927 28.265   2.52911E+08
 35.476 29.247   2.61388E+08
 34.003 30.265   2.70898E+08
 32.503 31.325   2.81601E+08
 30.970 32.436   2.93729E+08
 29.399 33.604   3.08196E+08
 27.781 34.842   3.25426E+08
 26.107 36.164   3.45342E+08
 24.362 37.590   3.68913E+08
 22.531 39.147   3.99302E+08
 20.587 40.875   4.35439E+08
 18.650 42.688   4.85205E+08
 17.128 44.186   5.36518E+08
 16.000 45.343   5.83325E+08
 14.339 47.134   6.72199E+08
 12.248 49.562   8.33360E+08
 10.628 51.611   1.05004E+09
  9.341 53.371   1.31231E+09
  8.297 54.905   1.64727E+09
  7.436 56.258   2.08135E+09
  6.715 57.466   2.62362E+09
  6.104 58.550   3.34014E+09
  5.581 58.550   3.34014E+09
  5.129 58.550   3.34014E+09
  4.735 58.550   3.34014E+09
  4.389 58.550   3.34014E+09
  4.084 58.550   3.34014E+09
  3.812 58.550   3.34014E+09
  3.569 58.550   3.34014E+09
  3.352 58.550   3.34014E+09
  3.155 58.550   3.34014E+09
  2.500 58.550   3.34014E+09
  1.500 58.550   3.34014E+09
  1.000 58.550   3.34014E+09
  0.000 58.550   3.34014E+09
  PA[deg]   MIRRLAT[deg]  DENS[m-3]                      LZ = 4.50
 90.000  0.000   4.34701E+07
 88.227  0.836   1.36111E+08
 86.488  1.656   1.36217E+08
 84.781  2.463   1.36391E+08
 83.103  3.258   1.36632E+08
 81.453  4.042   1.36936E+08
 79.829  4.816   1.37302E+08
 78.229  5.581   1.37729E+08
 76.653  6.339   1.38216E+08
 75.098  7.091   1.38810E+08
 73.563  7.838   1.39560E+08
 72.047  8.579   1.40427E+08
 70.548  9.318   1.41400E+08
 69.066 10.053   1.42477E+08
 67.599 10.787   1.43657E+08
 66.146 11.519   1.44942E+08
 64.707 12.251   1.46338E+08
 63.279 12.983   1.47849E+08
 61.863 13.716   1.49476E+08
 60.456 14.452   1.51226E+08
 59.058 15.190   1.53044E+08
 57.668 15.932   1.54884E+08
 56.285 16.679   1.56793E+08
 54.907 17.431   1.58793E+08
 53.534 18.189   1.61020E+08
 52.165 18.955   1.63470E+08
 50.798 19.729   1.66131E+08
 49.431 20.513   1.69110E+08
 48.065 21.308   1.72437E+08
 46.697 22.115   1.76057E+08
 45.325 22.936   1.79868E+08
 43.949 23.772   1.83944E+08
 42.566 24.626   1.88336E+08
 41.175 25.500   1.93083E+08
 39.773 26.395   1.98379E+08
 38.358 27.316   2.04351E+08
 36.927 28.265   2.10640E+08
 35.476 29.247   2.17503E+08
 34.003 30.265   2.25441E+08
 32.503 31.325   2.34469E+08
 30.970 32.436   2.44779E+08
 29.399 33.604   2.56635E+08
 27.781 34.842   2.70382E+08
 26.107 36.164   2.87239E+08
 24.362 37.590   3.08030E+08
 22.531 39.147   3.32487E+08
 20.587 40.875   3.65289E+08
 18.650 42.688   4.03168E+08
 17.128 44.186   4.44132E+08
 16.000 45.343   4.82128E+08
 14.339 47.134   5.49853E+08
 12.248 49.562   6.78777E+08
 10.628 51.611   8.39734E+08
  9.341 53.370   1.04541E+09
  8.297 54.906   1.28659E+09
  7.436 56.258   1.60295E+09
  6.715 57.465   2.00097E+09
  6.104 58.552   2.49301E+09
  5.581 59.533   3.13142E+09
  5.129 59.533   3.13142E+09
  4.735 59.533   3.13142E+09
  4.389 59.533   3.13142E+09
  4.084 59.533   3.13142E+09
  3.812 59.533   3.13142E+09
  3.569 59.533   3.13142E+09
  3.352 59.533   3.13142E+09
  3.155 59.533   3.13142E+09
  2.500 59.533   3.13142E+09
  1.500 59.533   3.13142E+09
  1.000 59.533   3.13142E+09
  0.000 59.533   3.13142E+09
  PA[deg]   MIRRLAT[deg]  DENS[m-3]                      LZ = 4.75
 90.000  0.000   3.54353E+07
 88.227  0.836   1.17126E+08
 86.488  1.656   1.17246E+08
 84.781  2.463   1.17443E+08
 83.103  3.258   1.17715E+08
 81.453  4.042   1.18059E+08
 79.829  4.816   1.18474E+08
 78.229  5.582   1.18959E+08
 76.653  6.339   1.19484E+08
 75.098  7.091   1.20029E+08
 73.563  7.838   1.20614E+08
 72.047  8.579   1.21245E+08
 70.548  9.318   1.21926E+08
 69.066 10.053   1.22660E+08
 67.599 10.787   1.23448E+08
 66.146 11.519   1.24293E+08
 64.707 12.251   1.25201E+08
 63.279 12.983   1.26174E+08
 61.863 13.716   1.27212E+08
 60.456 14.452   1.28320E+08
 59.058 15.190   1.29550E+08
 57.668 15.932   1.31009E+08
 56.285 16.679   1.32644E+08
 54.907 17.431   1.34447E+08
 53.534 18.189   1.36424E+08
 52.165 18.955   1.38578E+08
 50.798 19.729   1.40916E+08
 49.431 20.513   1.43313E+08
 48.065 21.308   1.45797E+08
 46.697 22.115   1.48454E+08
 45.325 22.936   1.51451E+08
 43.949 23.772   1.54754E+08
 42.566 24.626   1.58532E+08
 41.175 25.500   1.62772E+08
 39.773 26.395   1.67310E+08
 38.358 27.316   1.72233E+08
 36.927 28.265   1.77623E+08
 35.476 29.247   1.83662E+08
 34.003 30.265   1.90605E+08
 32.503 31.325   1.98028E+08
 30.970 32.436   2.06576E+08
 29.399 33.604   2.16612E+08
 27.781 34.842   2.28361E+08
 26.107 36.164   2.42263E+08
 24.362 37.590   2.59165E+08
 22.531 39.147   2.80933E+08
 20.587 40.875   3.07844E+08
 18.650 42.688   3.42179E+08
 17.128 44.186   3.73783E+08
 16.000 45.343   4.04217E+08
 14.339 47.134   4.59539E+08
 12.248 49.562   5.62429E+08
 10.628 51.611   6.85696E+08
  9.341 53.372   8.45667E+08
  8.297 54.905   1.03830E+09
  7.436 56.259   1.26229E+09
  6.715 57.465   1.55913E+09
  6.104 58.550   1.92587E+09
  5.581 59.534   2.37739E+09
  5.129 60.427   2.94855E+09
  4.735 60.427   2.94855E+09
  4.389 60.427   2.94855E+09
  4.084 60.427   2.94855E+09
  3.812 60.427   2.94855E+09
  3.569 60.427   2.94855E+09
  3.352 60.427   2.94855E+09
  3.155 60.427   2.94855E+09
  2.500 60.427   2.94855E+09
  1.500 60.427   2.94855E+09
  1.000 60.427   2.94855E+09
  0.000 60.427   2.94855E+09
  PA[deg]   MIRRLAT[deg]  DENS[m-3]                      LZ = 5.00
 90.000  0.000   2.87925E+07
 88.227  0.836   1.00173E+08
 86.488  1.656   1.00259E+08
 84.781  2.463   1.00401E+08
 83.103  3.258   1.00597E+08
 81.453  4.042   1.00844E+08
 79.829  4.816   1.01143E+08
 78.229  5.582   1.01492E+08
 76.653  6.339   1.01891E+08
 75.098  7.091   1.02339E+08
 73.563  7.838   1.02838E+08
 72.047  8.579   1.03386E+08
 70.548  9.318   1.03986E+08
 69.066 10.053   1.04637E+08
 67.599 10.787   1.05350E+08
 66.146 11.519   1.06181E+08
 64.707 12.251   1.07108E+08
 63.279 12.983   1.08125E+08
 61.863 13.716   1.09230E+08
 60.456 14.452   1.10408E+08
 59.058 15.190   1.11594E+08
 57.668 15.932   1.12823E+08
 56.285 16.679   1.14109E+08
 54.907 17.431   1.15464E+08
 53.534 18.189   1.16899E+08
 52.165 18.955   1.18418E+08
 50.798 19.729   1.20047E+08
 49.431 20.513   1.21969E+08
 48.065 21.308   1.24141E+08
 46.697 22.115   1.26555E+08
 45.325 22.936   1.29222E+08
 43.949 23.772   1.32110E+08
 42.566 24.626   1.35088E+08
 41.175 25.500   1.38282E+08
 39.773 26.395   1.41921E+08
 38.358 27.316   1.46051E+08
 36.927 28.265   1.50852E+08
 35.476 29.247   1.56112E+08
 34.003 30.265   1.61906E+08
 32.503 31.325   1.68376E+08
 30.970 32.436   1.75984E+08
 29.399 33.604   1.84409E+08
 27.781 34.842   1.94264E+08
 26.107 36.164   2.06155E+08
 24.362 37.590   2.20579E+08
 22.531 39.147   2.38404E+08
 20.587 40.875   2.62217E+08
 18.650 42.688   2.90762E+08
 17.128 44.186   3.19809E+08
 16.000 45.343   3.44085E+08
 14.339 47.134   3.88407E+08
 12.248 49.562   4.70778E+08
 10.628 51.611   5.73471E+08
  9.341 53.370   6.93506E+08
  8.297 54.905   8.45672E+08
  7.436 56.258   1.02744E+09
  6.715 57.467   1.23815E+09
  6.104 58.550   1.51612E+09
  5.581 59.532   1.85518E+09
  5.129 60.430   2.27443E+09
  4.735 61.248   2.78704E+09
  4.389 61.248   2.78704E+09
  4.084 61.248   2.78704E+09
  3.812 61.248   2.78704E+09
  3.569 61.248   2.78704E+09
  3.352 61.248   2.78704E+09
  3.155 61.248   2.78704E+09
  2.500 61.248   2.78704E+09
  1.500 61.248   2.78704E+09
  1.000 61.248   2.78704E+09
  0.000 61.248   2.78704E+09
  PA[deg]   MIRRLAT[deg]  DENS[m-3]                      LZ = 5.25
 90.000  0.000   2.37747E+07
 88.227  0.836   8.68495E+07
 86.488  1.656   8.69195E+07
 84.781  2.463   8.70344E+07
 83.103  3.258   8.71928E+07
 81.453  4.042   8.73931E+07
 79.829  4.816   8.76488E+07
 78.229  5.582   8.79576E+07
 76.653  6.339   8.83145E+07
 75.098  7.091   8.87184E+07
 73.563  7.838   8.91686E+07
 72.047  8.579   8.96654E+07
 70.548  9.318   9.02092E+07
 69.066 10.053   9.08005E+07
 67.599 10.787   9.14392E+07
 66.146 11.519   9.21271E+07
 64.707 12.251   9.28655E+07
 63.279 12.983   9.36574E+07
 61.863 13.716   9.45041E+07
 60.456 14.452   9.54109E+07
 59.058 15.190   9.63794E+07
 57.668 15.932   9.74129E+07
 56.285 16.679   9.85312E+07
 54.907 17.431   9.98061E+07
 53.534 18.189   1.01214E+08
 52.165 18.955   1.02745E+08
 50.798 19.729   1.04310E+08
 49.431 20.513   1.05935E+08
 48.065 21.308   1.07644E+08
 46.697 22.115   1.09460E+08
 45.325 22.936   1.11394E+08
 43.949 23.772   1.13590E+08
 42.566 24.626   1.16159E+08
 41.175 25.500   1.19058E+08
 39.773 26.395   1.22308E+08
 38.358 27.316   1.25746E+08
 36.927 28.265   1.29435E+08
 35.476 29.247   1.33696E+08
 34.003 30.265   1.38689E+08
 32.503 31.325   1.44471E+08
 30.970 32.436   1.50907E+08
 29.399 33.604   1.58228E+08
 27.781 34.842   1.67023E+08
 26.107 36.164   1.76975E+08
 24.362 37.590   1.89332E+08
 22.531 39.147   2.04743E+08
 20.587 40.875   2.24480E+08
 18.650 42.688   2.49940E+08
 17.128 44.186   2.74016E+08
 16.000 45.343   2.96334E+08
 14.339 47.134   3.32297E+08
 12.248 49.562   4.00727E+08
 10.628 51.611   4.83907E+08
  9.341 53.372   5.81742E+08
  8.297 54.904   6.99379E+08
  7.436 56.258   8.45902E+08
  6.715 57.465   1.01461E+09
  6.104 58.552   1.21888E+09
  5.581 59.533   1.47436E+09
  5.129 60.439   1.86406E+09
  4.735 61.251   2.18411E+09
  4.389 62.003   2.64410E+09
  4.084 62.003   2.64410E+09
  3.812 62.003   2.64410E+09
  3.569 62.003   2.64410E+09
  3.352 62.003   2.64410E+09
  3.155 62.003   2.64410E+09
  2.500 62.003   2.64410E+09
  1.500 62.003   2.64410E+09
  1.000 62.003   2.64410E+09
  0.000 62.003   2.64410E+09
  PA[deg]   MIRRLAT[deg]  DENS[m-3]                      LZ = 5.50
 90.000  0.000   2.00986E+07
 88.227  0.836   7.69158E+07
 86.488  1.656   7.69742E+07
 84.781  2.463   7.70703E+07
 83.103  3.258   7.72025E+07
 81.453  4.042   7.73698E+07
 79.829  4.816   7.75714E+07
 78.229  5.582   7.78066E+07
 76.653  6.339   7.80747E+07
 75.098  7.091   7.83759E+07
 73.563  7.838   7.87100E+07
 72.047  8.579   7.90772E+07
 70.548  9.318   7.94859E+07
 69.066 10.053   7.99446E+07
 67.599 10.787   8.04476E+07
 66.146 11.519   8.09940E+07
 64.707 12.251   8.15837E+07
 63.279 12.983   8.22184E+07
 61.863 13.716   8.29239E+07
 60.456 14.452   8.36992E+07
 59.058 15.190   8.45398E+07
 57.668 15.932   8.54461E+07
 56.285 16.679   8.64182E+07
 54.907 17.431   8.74605E+07
 53.534 18.189   8.85764E+07
 52.165 18.955   8.97714E+07
 50.798 19.729   9.10519E+07
 49.431 20.513   9.24291E+07
 48.065 21.308   9.40001E+07
 46.697 22.115   9.57543E+07
 45.325 22.936   9.76338E+07
 43.949 23.772   9.95723E+07
 42.566 24.626   1.01627E+08
 41.175 25.500   1.03827E+08
 39.773 26.395   1.06249E+08
 38.358 27.316   1.09155E+08
 36.927 28.265   1.12505E+08
 35.476 29.247   1.16294E+08
 34.003 30.265   1.20316E+08
 32.503 31.325   1.24932E+08
 30.970 32.436   1.30455E+08
 29.399 33.604   1.37000E+08
 27.781 34.842   1.44468E+08
 26.107 36.164   1.53364E+08
 24.362 37.590   1.63968E+08
 22.531 39.147   1.77208E+08
 20.587 40.875   1.94362E+08
 18.650 42.688   2.15684E+08
 17.128 44.186   2.37453E+08
 16.000 45.343   2.55994E+08
 14.339 47.134   2.88888E+08
 12.248 49.562   3.44465E+08
 10.628 51.611   4.13203E+08
  9.341 53.370   4.94968E+08
  8.297 54.905   5.87792E+08
  7.436 56.257   7.03835E+08
  6.715 57.465   8.44650E+08
  6.104 58.550   1.00130E+09
  5.581 59.535   1.20322E+09
  5.129 60.428   1.43594E+09
  4.735 61.262   1.84774E+09
  4.389 62.007   2.10501E+09
  4.084 62.701   2.51610E+09
  3.812 62.701   2.51610E+09
  3.569 62.701   2.51610E+09
  3.352 62.701   2.51610E+09
  3.155 62.701   2.51610E+09
  2.500 62.701   2.51610E+09
  1.500 62.701   2.51610E+09
  1.000 62.701   2.51610E+09
  0.000 62.701   2.51610E+09
  PA[deg]   MIRRLAT[deg]  DENS[m-3]                      LZ = 5.75
 90.000  0.000   1.69439E+07
 88.227  0.836   6.77929E+07
 86.488  1.656   6.78527E+07
 84.781  2.463   6.79510E+07
 83.103  3.258   6.80864E+07
 81.453  4.042   6.82577E+07
 79.829  4.816   6.84643E+07
 78.229  5.582   6.87054E+07
 76.653  6.339   6.89806E+07
 75.098  7.091   6.92900E+07
 73.563  7.838   6.96336E+07
 72.047  8.579   7.00116E+07
 70.548  9.318   7.04247E+07
 69.066 10.053   7.08733E+07
 67.599 10.787   7.13584E+07
 66.146 11.519   7.18764E+07
 64.707 12.251   7.24143E+07
 63.279 12.983   7.29813E+07
 61.863 13.716   7.35806E+07
 60.456 14.452   7.42157E+07
 59.058 15.190   7.48935E+07
 57.668 15.932   7.56347E+07
 56.285 16.679   7.64335E+07
 54.907 17.431   7.72906E+07
 53.534 18.189   7.82274E+07
 52.165 18.955   7.92601E+07
 50.798 19.729   8.03823E+07
 49.431 20.513   8.15952E+07
 48.065 21.308   8.29016E+07
 46.697 22.115   8.43103E+07
 45.325 22.936   8.58323E+07
 43.949 23.772   8.74876E+07
 42.566 24.626   8.93978E+07
 41.175 25.500   9.15322E+07
 39.773 26.395   9.37586E+07
 38.358 27.316   9.61316E+07
 36.927 28.265   9.87010E+07
 35.476 29.247   1.01679E+08
 34.003 30.265   1.05267E+08
 32.503 31.325   1.09442E+08
 30.970 32.436   1.13966E+08
 29.399 33.604   1.19288E+08
 27.781 34.842   1.25894E+08
 26.107 36.164   1.33677E+08
 24.362 37.590   1.43004E+08
 22.531 39.147   1.54556E+08
 20.587 40.875   1.69394E+08
 18.650 42.688   1.87949E+08
 17.128 44.186   2.06330E+08
 16.000 45.343   2.23282E+08
 14.339 47.134   2.51354E+08
 12.248 49.562   2.98989E+08
 10.628 51.611   3.56804E+08
  9.341 53.371   4.24301E+08
  8.297 54.905   5.03141E+08
  7.436 56.258   5.94819E+08
  6.715 57.464   7.06492E+08
  6.104 58.550   8.40816E+08
  5.581 59.532   9.88260E+08
  5.129 60.430   1.18626E+09
  4.735 61.248   1.40159E+09
  4.389 62.020   1.97736E+09
  4.084 62.706   2.03735E+09
  3.812 63.351   2.40359E+09
  3.569 63.351   2.40359E+09
  3.352 63.351   2.40359E+09
  3.155 63.351   2.40359E+09
  2.500 63.351   2.40359E+09
  1.500 63.351   2.40359E+09
  1.000 63.351   2.40359E+09
  0.000 63.351   2.40359E+09
  PA[deg]   MIRRLAT[deg]  DENS[m-3]                      LZ = 6.00
 90.000  0.000   1.45198E+07
 88.227  0.836   6.06174E+07
 86.488  1.656   6.06630E+07
 84.781  2.463   6.07378E+07
 83.103  3.258   6.08409E+07
 81.453  4.042   6.09712E+07
 79.829  4.816   6.11283E+07
 78.229  5.582   6.13115E+07
 76.653  6.339   6.15205E+07
 75.098  7.091   6.17551E+07
 73.563  7.838   6.20154E+07
 72.047  8.579   6.23014E+07
 70.548  9.318   6.26135E+07
 69.066 10.053   6.29580E+07
 67.599 10.787   6.33583E+07
 66.146 11.519   6.38041E+07
 64.707 12.251   6.42919E+07
 63.279 12.983   6.48219E+07
 61.863 13.716   6.53937E+07
 60.456 14.452   6.60093E+07
 59.058 15.190   6.66696E+07
 57.668 15.932   6.73767E+07
 56.285 16.679   6.81227E+07
 54.907 17.431   6.88984E+07
 53.534 18.189   6.97147E+07
 52.165 18.955   7.05768E+07
 50.798 19.729   7.15150E+07
 49.431 20.513   7.25308E+07
 48.065 21.308   7.36277E+07
 46.697 22.115   7.48493E+07
 45.325 22.936   7.61905E+07
 43.949 23.772   7.76503E+07
 42.566 24.626   7.92383E+07
 41.175 25.500   8.09682E+07
 39.773 26.395   8.28677E+07
 38.358 27.316   8.50843E+07
 36.927 28.265   8.75516E+07
 35.476 29.247   9.01611E+07
 34.003 30.265   9.30048E+07
 32.503 31.325   9.62909E+07
 30.970 32.436   1.00353E+08
 29.399 33.604   1.05115E+08
 27.781 34.842   1.10460E+08
 26.107 36.164   1.17152E+08
 24.362 37.590   1.25473E+08
 22.531 39.147   1.35628E+08
 20.587 40.875   1.48604E+08
 18.650 42.688   1.64810E+08
 17.128 44.186   1.80835E+08
 16.000 45.343   1.95226E+08
 14.339 47.134   2.20529E+08
 12.248 49.562   2.63108E+08
 10.628 51.610   3.10813E+08
  9.341 53.370   3.67482E+08
  8.297 54.905   4.34672E+08
  7.436 56.258   5.09013E+08
  6.715 57.465   6.00724E+08
  6.104 58.549   7.07913E+08
  5.581 59.532   8.34946E+08
  5.129 60.439   1.01016E+09
  4.735 61.250   1.16822E+09
  4.389 62.003   1.36980E+09
  4.084 62.721   1.62158E+09
  3.812 63.357   1.98561E+09
  3.569 63.956   2.30410E+09
  3.352 63.956   2.30410E+09
  3.155 63.956   2.30410E+09
  2.500 63.956   2.30410E+09
  1.500 63.956   2.30410E+09
  1.000 63.956   2.30410E+09
  0.000 63.956   2.30410E+09
  PA[deg]   MIRRLAT[deg]  DENS[m-3]                      LZ = 6.25
 90.000  0.000   1.24237E+07
 88.227  0.836   5.40296E+07
 86.488  1.656   5.40763E+07
 84.781  2.463   5.41531E+07
 83.103  3.258   5.42588E+07
 81.453  4.042   5.43926E+07
 79.829  4.816   5.45539E+07
 78.229  5.582   5.47421E+07
 76.653  6.339   5.49570E+07
 75.098  7.091   5.51984E+07
 73.563  7.838   5.54666E+07
 72.047  8.579   5.57616E+07
 70.548  9.318   5.60840E+07
 69.066 10.053   5.64340E+07
 67.599 10.787   5.68124E+07
 66.146 11.519   5.72188E+07
 64.707 12.251   5.76415E+07
 63.279 12.983   5.80863E+07
 61.863 13.716   5.85561E+07
 60.456 14.452   5.90538E+07
 59.058 15.190   5.95828E+07
 57.668 15.932   6.01788E+07
 56.285 16.679   6.08345E+07
 54.907 17.431   6.15465E+07
 53.534 18.189   6.23150E+07
 52.165 18.955   6.31420E+07
 50.798 19.729   6.40306E+07
 49.431 20.513   6.49650E+07
 48.065 21.308   6.59450E+07
 46.697 22.115   6.69842E+07
 45.325 22.936   6.81205E+07
 43.949 23.772   6.93557E+07
 42.566 24.626   7.07261E+07
 41.175 25.500   7.22546E+07
 39.773 26.395   7.39381E+07
 38.358 27.316   7.57895E+07
 36.927 28.265   7.78313E+07
 35.476 29.247   8.01889E+07
 34.003 30.265   8.29157E+07
 32.503 31.325   8.58356E+07
 30.970 32.436   8.90623E+07
 29.399 33.604   9.29996E+07
 27.781 34.842   9.79115E+07
 26.107 36.164   1.03527E+08
 24.362 37.590   1.10590E+08
 22.531 39.147   1.19690E+08
 20.587 40.875   1.31251E+08
 18.650 42.688   1.45370E+08
 17.128 44.186   1.59502E+08
 16.000 45.343   1.72093E+08
 14.339 47.134   1.94134E+08
 12.248 49.562   2.31875E+08
 10.628 51.610   2.72779E+08
  9.341 53.370   3.21455E+08
  8.297 54.905   3.76968E+08
  7.436 56.259   4.42864E+08
  6.715 57.465   5.15371E+08
  6.104 58.550   6.05338E+08
  5.581 59.530   7.08199E+08
  5.129 60.427   8.27615E+08
  4.735 61.261   1.01154E+09
  4.389 62.007   1.15020E+09
  4.084 62.700   1.33953E+09
  3.812 63.374   1.58793E+09
  3.569 63.964   1.96238E+09
  3.352 64.519   2.21550E+09
  3.155 64.519   2.21550E+09
  2.500 64.519   2.21550E+09
  1.500 64.519   2.21550E+09
  1.000 64.519   2.21550E+09
  0.000 64.519   2.21550E+09
  PA[deg]   MIRRLAT[deg]  DENS[m-3]                      LZ = 6.50
 90.000  0.000   1.08462E+07
 88.227  0.836   4.90567E+07
 86.488  1.656   4.90971E+07
 84.781  2.463   4.91536E+07
 83.103  3.258   4.92293E+07
 81.453  4.042   4.93245E+07
 79.829  4.816   4.94388E+07
 78.229  5.582   4.95719E+07
 76.653  6.339   4.97235E+07
 75.098  7.091   4.98935E+07
 73.563  7.838   5.00820E+07
 72.047  8.579   5.02889E+07
 70.548  9.318   5.05160E+07
 69.066 10.053   5.07904E+07
 67.599 10.787   5.11045E+07
 66.146 11.519   5.14532E+07
 64.707 12.251   5.18349E+07
 63.279 12.983   5.22495E+07
 61.863 13.716   5.26972E+07
 60.456 14.452   5.31793E+07
 59.058 15.190   5.36965E+07
 57.668 15.932   5.42504E+07
 56.285 16.679   5.48296E+07
 54.907 17.431   5.54354E+07
 53.534 18.189   5.60740E+07
 52.165 18.955   5.67534E+07
 50.798 19.729   5.75168E+07
 49.431 20.513   5.83561E+07
 48.065 21.308   5.92683E+07
 46.697 22.115   6.02569E+07
 45.325 22.936   6.13230E+07
 43.949 23.772   6.24430E+07
 42.566 24.626   6.36346E+07
 41.175 25.500   6.49408E+07
 39.773 26.395   6.63768E+07
 38.358 27.316   6.80014E+07
 36.927 28.265   6.98228E+07
 35.476 29.247   7.18518E+07
 34.003 30.265   7.41165E+07
 32.503 31.325   7.67744E+07
 30.970 32.436   7.98514E+07
 29.399 33.604   8.32119E+07
 27.781 34.842   8.71404E+07
 26.107 36.164   9.22354E+07
 24.362 37.590   9.83146E+07
 22.531 39.147   1.06105E+08
 20.587 40.876   1.16413E+08
 18.650 42.688   1.29133E+08
 17.128 44.186   1.41434E+08
 16.000 45.343   1.52601E+08
 14.339 47.133   1.71720E+08
 12.248 49.562   2.05401E+08
 10.628 51.611   2.42679E+08
  9.341 53.369   2.82869E+08
  8.297 54.905   3.30947E+08
  7.436 56.258   3.86400E+08
  6.715 57.466   4.49283E+08
  6.104 58.550   5.21477E+08
  5.581 59.524   6.00251E+08
  5.129 60.425   7.07035E+08
  4.735 61.247   8.19519E+08
  4.389 62.018   1.03389E+09
  4.084 62.704   1.13276E+09
  3.812 63.350   1.31066E+09
  3.569 63.983   1.56393E+09
  3.352 64.528   2.13657E+09
  3.155 65.051   2.14199E+09
  2.500 65.051   2.14199E+09
  1.500 65.051   2.14199E+09
  1.000 65.051   2.14199E+09
  0.000 65.051   2.14199E+09
